# 451 angles,  1 tensor ranks for 0=projectile
@subtitle   "49Ti(d,p)50Ti"                                                                 
@legend ON
@legend x1 0.2
@legend y1 0.8
@g0 type LOGY
@yaxis ticklabel format power
@xaxis label "Scattering angle (degrees)"
@yaxis label "Cross section (mb/sr)"
@legend string   0 "Partition=  1 Excit=  1 near/far= 1"
#legend string   0 "Lab energy =   16.0000"
@s0 linestyle   1
#  Theta       sigma       iT11        T20         T21         T22         Kyy for projectile
   15.00      0.7062    
   15.10      0.7074    
   15.20      0.7085    
   15.30      0.7096    
   15.40      0.7106    
   15.50      0.7117    
   15.60      0.7126    
   15.70      0.7135    
   15.80      0.7144    
   15.90      0.7152    
   16.00      0.7160    
   16.10      0.7167    
   16.20      0.7173    
   16.30      0.7178    
   16.40      0.7183    
   16.50      0.7186    
   16.60      0.7189    
   16.70      0.7191    
   16.80      0.7193    
   16.90      0.7193    
   17.00      0.7192    
   17.10      0.7190    
   17.20      0.7188    
   17.30      0.7184    
   17.40      0.7179    
   17.50      0.7173    
   17.60      0.7166    
   17.70      0.7158    
   17.80      0.7149    
   17.90      0.7138    
   18.00      0.7126    
   18.10      0.7113    
   18.20      0.7099    
   18.30      0.7084    
   18.40      0.7068    
   18.50      0.7050    
   18.60      0.7031    
   18.70      0.7010    
   18.80      0.6989    
   18.90      0.6966    
   19.00      0.6942    
   19.10      0.6917    
   19.20      0.6890    
   19.30      0.6862    
   19.40      0.6833    
   19.50      0.6803    
   19.60      0.6772    
   19.70      0.6739    
   19.80      0.6705    
   19.90      0.6670    
   20.00      0.6633    
   20.10      0.6596    
   20.20      0.6557    
   20.30      0.6517    
   20.40      0.6477    
   20.50      0.6434    
   20.60      0.6391    
   20.70      0.6347    
   20.80      0.6302    
   20.90      0.6256    
   21.00      0.6208    
   21.10      0.6160    
   21.20      0.6111    
   21.30      0.6061    
   21.40      0.6010    
   21.50      0.5958    
   21.60      0.5905    
   21.70      0.5852    
   21.80      0.5798    
   21.90      0.5743    
   22.00      0.5687    
   22.10      0.5631    
   22.20      0.5574    
   22.30      0.5516    
   22.40      0.5458    
   22.50      0.5399    
   22.60      0.5340    
   22.70      0.5280    
   22.80      0.5220    
   22.90      0.5160    
   23.00      0.5099    
   23.10      0.5038    
   23.20      0.4977    
   23.30      0.4916    
   23.40      0.4854    
   23.50      0.4792    
   23.60      0.4730    
   23.70      0.4668    
   23.80      0.4606    
   23.90      0.4544    
   24.00      0.4483    
   24.10      0.4421    
   24.20      0.4359    
   24.30      0.4298    
   24.40      0.4237    
   24.50      0.4176    
   24.60      0.4115    
   24.70      0.4055    
   24.80      0.3995    
   24.90      0.3936    
   25.00      0.3877    
   25.10      0.3818    
   25.20      0.3760    
   25.30      0.3703    
   25.40      0.3646    
   25.50      0.3590    
   25.60      0.3535    
   25.70      0.3481    
   25.80      0.3427    
   25.90      0.3374    
   26.00      0.3322    
   26.10      0.3271    
   26.20      0.3220    
   26.30      0.3171    
   26.40      0.3123    
   26.50      0.3075    
   26.60      0.3029    
   26.70      0.2984    
   26.80      0.2939    
   26.90      0.2896    
   27.00      0.2855    
   27.10      0.2814    
   27.20      0.2774    
   27.30      0.2736    
   27.40      0.2699    
   27.50      0.2663    
   27.60      0.2629    
   27.70      0.2596    
   27.80      0.2564    
   27.90      0.2534    
   28.00      0.2505    
   28.10      0.2477    
   28.20      0.2451    
   28.30      0.2427    
   28.40      0.2403    
   28.50      0.2381    
   28.60      0.2361    
   28.70      0.2342    
   28.80      0.2325    
   28.90      0.2309    
   29.00      0.2295    
   29.10      0.2282    
   29.20      0.2270    
   29.30      0.2261    
   29.40      0.2252    
   29.50      0.2246    
   29.60      0.2240    
   29.70      0.2237    
   29.80      0.2234    
   29.90      0.2234    
   30.00      0.2235    
   30.10      0.2237    
   30.20      0.2241    
   30.30      0.2246    
   30.40      0.2253    
   30.50      0.2262    
   30.60      0.2272    
   30.70      0.2283    
   30.80      0.2296    
   30.90      0.2310    
   31.00      0.2326    
   31.10      0.2343    
   31.20      0.2361    
   31.30      0.2381    
   31.40      0.2403    
   31.50      0.2425    
   31.60      0.2449    
   31.70      0.2475    
   31.80      0.2501    
   31.90      0.2529    
   32.00      0.2558    
   32.10      0.2588    
   32.20      0.2620    
   32.30      0.2652    
   32.40      0.2686    
   32.50      0.2721    
   32.60      0.2757    
   32.70      0.2794    
   32.80      0.2832    
   32.90      0.2871    
   33.00      0.2911    
   33.10      0.2952    
   33.20      0.2994    
   33.30      0.3037    
   33.40      0.3080    
   33.50      0.3125    
   33.60      0.3170    
   33.70      0.3216    
   33.80      0.3263    
   33.90      0.3310    
   34.00      0.3358    
   34.10      0.3406    
   34.20      0.3456    
   34.30      0.3505    
   34.40      0.3555    
   34.50      0.3606    
   34.60      0.3657    
   34.70      0.3708    
   34.80      0.3760    
   34.90      0.3812    
   35.00      0.3864    
   35.10      0.3917    
   35.20      0.3970    
   35.30      0.4022    
   35.40      0.4075    
   35.50      0.4129    
   35.60      0.4182    
   35.70      0.4235    
   35.80      0.4288    
   35.90      0.4341    
   36.00      0.4394    
   36.10      0.4446    
   36.20      0.4499    
   36.30      0.4551    
   36.40      0.4603    
   36.50      0.4655    
   36.60      0.4706    
   36.70      0.4757    
   36.80      0.4808    
   36.90      0.4858    
   37.00      0.4908    
   37.10      0.4957    
   37.20      0.5006    
   37.30      0.5054    
   37.40      0.5101    
   37.50      0.5148    
   37.60      0.5194    
   37.70      0.5240    
   37.80      0.5284    
   37.90      0.5328    
   38.00      0.5371    
   38.10      0.5413    
   38.20      0.5455    
   38.30      0.5495    
   38.40      0.5535    
   38.50      0.5574    
   38.60      0.5611    
   38.70      0.5648    
   38.80      0.5683    
   38.90      0.5718    
   39.00      0.5752    
   39.10      0.5784    
   39.20      0.5815    
   39.30      0.5846    
   39.40      0.5875    
   39.50      0.5903    
   39.60      0.5929    
   39.70      0.5955    
   39.80      0.5979    
   39.90      0.6002    
   40.00      0.6024    
   40.10      0.6044    
   40.20      0.6063    
   40.30      0.6081    
   40.40      0.6098    
   40.50      0.6113    
   40.60      0.6127    
   40.70      0.6140    
   40.80      0.6151    
   40.90      0.6161    
   41.00      0.6169    
   41.10      0.6176    
   41.20      0.6182    
   41.30      0.6187    
   41.40      0.6190    
   41.50      0.6191    
   41.60      0.6191    
   41.70      0.6190    
   41.80      0.6188    
   41.90      0.6184    
   42.00      0.6179    
   42.10      0.6172    
   42.20      0.6164    
   42.30      0.6155    
   42.40      0.6144    
   42.50      0.6132    
   42.60      0.6118    
   42.70      0.6104    
   42.80      0.6087    
   42.90      0.6070    
   43.00      0.6051    
   43.10      0.6031    
   43.20      0.6010    
   43.30      0.5987    
   43.40      0.5964    
   43.50      0.5938    
   43.60      0.5912    
   43.70      0.5885    
   43.80      0.5856    
   43.90      0.5826    
   44.00      0.5795    
   44.10      0.5763    
   44.20      0.5729    
   44.30      0.5695    
   44.40      0.5659    
   44.50      0.5623    
   44.60      0.5585    
   44.70      0.5547    
   44.80      0.5507    
   44.90      0.5466    
   45.00      0.5425    
   45.10      0.5382    
   45.20      0.5339    
   45.30      0.5295    
   45.40      0.5250    
   45.50      0.5204    
   45.60      0.5157    
   45.70      0.5110    
   45.80      0.5061    
   45.90      0.5012    
   46.00      0.4963    
   46.10      0.4913    
   46.20      0.4862    
   46.30      0.4810    
   46.40      0.4758    
   46.50      0.4706    
   46.60      0.4652    
   46.70      0.4599    
   46.80      0.4545    
   46.90      0.4490    
   47.00      0.4435    
   47.10      0.4380    
   47.20      0.4325    
   47.30      0.4269    
   47.40      0.4213    
   47.50      0.4156    
   47.60      0.4100    
   47.70      0.4043    
   47.80      0.3986    
   47.90      0.3929    
   48.00      0.3872    
   48.10      0.3815    
   48.20      0.3758    
   48.30      0.3700    
   48.40      0.3643    
   48.50      0.3586    
   48.60      0.3529    
   48.70      0.3472    
   48.80      0.3416    
   48.90      0.3359    
   49.00      0.3303    
   49.10      0.3247    
   49.20      0.3191    
   49.30      0.3135    
   49.40      0.3080    
   49.50      0.3025    
   49.60      0.2971    
   49.70      0.2917    
   49.80      0.2863    
   49.90      0.2810    
   50.00      0.2757    
   50.10      0.2705    
   50.20      0.2653    
   50.30      0.2602    
   50.40      0.2552    
   50.50      0.2502    
   50.60      0.2453    
   50.70      0.2404    
   50.80      0.2356    
   50.90      0.2309    
   51.00      0.2262    
   51.10      0.2216    
   51.20      0.2171    
   51.30      0.2127    
   51.40      0.2083    
   51.50      0.2041    
   51.60      0.1999    
   51.70      0.1958    
   51.80      0.1917    
   51.90      0.1878    
   52.00      0.1840    
   52.10      0.1802    
   52.20      0.1766    
   52.30      0.1730    
   52.40      0.1695    
   52.50      0.1661    
   52.60      0.1629    
   52.70      0.1597    
   52.80      0.1566    
   52.90      0.1536    
   53.00      0.1507    
   53.10      0.1479    
   53.20      0.1453    
   53.30      0.1427    
   53.40      0.1402    
   53.50      0.1378    
   53.60      0.1356    
   53.70      0.1334    
   53.80      0.1314    
   53.90      0.1294    
   54.00      0.1276    
   54.10      0.1259    
   54.20      0.1242    
   54.30      0.1227    
   54.40      0.1213    
   54.50      0.1200    
   54.60      0.1188    
   54.70      0.1177    
   54.80      0.1167    
   54.90      0.1158    
   55.00      0.1150    
   55.10      0.1144    
   55.20      0.1138    
   55.30      0.1133    
   55.40      0.1130    
   55.50      0.1127    
   55.60      0.1126    
   55.70      0.1125    
   55.80      0.1126    
   55.90      0.1127    
   56.00      0.1129    
   56.10      0.1133    
   56.20      0.1137    
   56.30      0.1142    
   56.40      0.1149    
   56.50      0.1156    
   56.60      0.1164    
   56.70      0.1173    
   56.80      0.1183    
   56.90      0.1194    
   57.00      0.1205    
   57.10      0.1218    
   57.20      0.1231    
   57.30      0.1245    
   57.40      0.1260    
   57.50      0.1276    
   57.60      0.1293    
   57.70      0.1310    
   57.80      0.1328    
   57.90      0.1347    
   58.00      0.1366    
   58.10      0.1386    
   58.20      0.1407    
   58.30      0.1428    
   58.40      0.1450    
   58.50      0.1473    
   58.60      0.1496    
   58.70      0.1520    
   58.80      0.1544    
   58.90      0.1569    
   59.00      0.1595    
   59.10      0.1621    
   59.20      0.1647    
   59.30      0.1674    
   59.40      0.1701    
   59.50      0.1729    
   59.60      0.1757    
   59.70      0.1785    
   59.80      0.1814    
   59.90      0.1843    
   60.00      0.1872    
 END
@legend string   1 "Partition=  2 Excit=  1 near/far= 1"
#legend string   0 "Lab energy =   16.0000"
@s1 linestyle   2
#  Theta       sigma       iT11        T20         T21         T22         Kyy for projectile
   15.00       16.69    
   15.10       16.56    
   15.20       16.43    
   15.30       16.31    
   15.40       16.18    
   15.50       16.04    
   15.60       15.91    
   15.70       15.77    
   15.80       15.63    
   15.90       15.49    
   16.00       15.35    
   16.10       15.21    
   16.20       15.06    
   16.30       14.92    
   16.40       14.77    
   16.50       14.62    
   16.60       14.47    
   16.70       14.32    
   16.80       14.17    
   16.90       14.01    
   17.00       13.86    
   17.10       13.70    
   17.20       13.55    
   17.30       13.39    
   17.40       13.23    
   17.50       13.07    
   17.60       12.91    
   17.70       12.75    
   17.80       12.59    
   17.90       12.43    
   18.00       12.27    
   18.10       12.11    
   18.20       11.94    
   18.30       11.78    
   18.40       11.62    
   18.50       11.46    
   18.60       11.29    
   18.70       11.13    
   18.80       10.97    
   18.90       10.81    
   19.00       10.65    
   19.10       10.49    
   19.20       10.33    
   19.30       10.16    
   19.40       10.01    
   19.50       9.846    
   19.60       9.687    
   19.70       9.529    
   19.80       9.372    
   19.90       9.215    
   20.00       9.060    
   20.10       8.905    
   20.20       8.751    
   20.30       8.598    
   20.40       8.446    
   20.50       8.296    
   20.60       8.146    
   20.70       7.998    
   20.80       7.850    
   20.90       7.704    
   21.00       7.560    
   21.10       7.416    
   21.20       7.274    
   21.30       7.134    
   21.40       6.994    
   21.50       6.857    
   21.60       6.721    
   21.70       6.586    
   21.80       6.453    
   21.90       6.321    
   22.00       6.192    
   22.10       6.064    
   22.20       5.937    
   22.30       5.812    
   22.40       5.689    
   22.50       5.568    
   22.60       5.449    
   22.70       5.331    
   22.80       5.215    
   22.90       5.101    
   23.00       4.989    
   23.10       4.879    
   23.20       4.771    
   23.30       4.665    
   23.40       4.560    
   23.50       4.458    
   23.60       4.357    
   23.70       4.258    
   23.80       4.162    
   23.90       4.067    
   24.00       3.974    
   24.10       3.883    
   24.20       3.795    
   24.30       3.708    
   24.40       3.623    
   24.50       3.540    
   24.60       3.459    
   24.70       3.380    
   24.80       3.303    
   24.90       3.228    
   25.00       3.155    
   25.10       3.084    
   25.20       3.015    
   25.30       2.948    
   25.40       2.883    
   25.50       2.820    
   25.60       2.758    
   25.70       2.699    
   25.80       2.641    
   25.90       2.585    
   26.00       2.532    
   26.10       2.480    
   26.20       2.429    
   26.30       2.381    
   26.40       2.335    
   26.50       2.290    
   26.60       2.247    
   26.70       2.206    
   26.80       2.166    
   26.90       2.128    
   27.00       2.092    
   27.10       2.058    
   27.20       2.025    
   27.30       1.993    
   27.40       1.964    
   27.50       1.936    
   27.60       1.909    
   27.70       1.884    
   27.80       1.861    
   27.90       1.839    
   28.00       1.818    
   28.10       1.799    
   28.20       1.781    
   28.30       1.765    
   28.40       1.750    
   28.50       1.736    
   28.60       1.724    
   28.70       1.713    
   28.80       1.703    
   28.90       1.694    
   29.00       1.686    
   29.10       1.680    
   29.20       1.675    
   29.30       1.670    
   29.40       1.667    
   29.50       1.665    
   29.60       1.664    
   29.70       1.664    
   29.80       1.665    
   29.90       1.666    
   30.00       1.669    
   30.10       1.672    
   30.20       1.676    
   30.30       1.682    
   30.40       1.687    
   30.50       1.694    
   30.60       1.701    
   30.70       1.709    
   30.80       1.718    
   30.90       1.727    
   31.00       1.737    
   31.10       1.747    
   31.20       1.758    
   31.30       1.770    
   31.40       1.781    
   31.50       1.794    
   31.60       1.807    
   31.70       1.820    
   31.80       1.834    
   31.90       1.847    
   32.00       1.862    
   32.10       1.876    
   32.20       1.891    
   32.30       1.906    
   32.40       1.922    
   32.50       1.937    
   32.60       1.953    
   32.70       1.969    
   32.80       1.985    
   32.90       2.001    
   33.00       2.017    
   33.10       2.033    
   33.20       2.049    
   33.30       2.066    
   33.40       2.082    
   33.50       2.098    
   33.60       2.114    
   33.70       2.130    
   33.80       2.147    
   33.90       2.162    
   34.00       2.178    
   34.10       2.194    
   34.20       2.210    
   34.30       2.225    
   34.40       2.240    
   34.50       2.255    
   34.60       2.270    
   34.70       2.284    
   34.80       2.299    
   34.90       2.313    
   35.00       2.326    
   35.10       2.340    
   35.20       2.353    
   35.30       2.366    
   35.40       2.378    
   35.50       2.390    
   35.60       2.402    
   35.70       2.413    
   35.80       2.425    
   35.90       2.435    
   36.00       2.445    
   36.10       2.455    
   36.20       2.465    
   36.30       2.474    
   36.40       2.482    
   36.50       2.490    
   36.60       2.498    
   36.70       2.505    
   36.80       2.512    
   36.90       2.518    
   37.00       2.524    
   37.10       2.530    
   37.20       2.535    
   37.30       2.539    
   37.40       2.543    
   37.50       2.547    
   37.60       2.550    
   37.70       2.552    
   37.80       2.554    
   37.90       2.556    
   38.00       2.557    
   38.10       2.557    
   38.20       2.557    
   38.30       2.557    
   38.40       2.556    
   38.50       2.555    
   38.60       2.553    
   38.70       2.550    
   38.80       2.547    
   38.90       2.544    
   39.00       2.540    
   39.10       2.536    
   39.20       2.531    
   39.30       2.525    
   39.40       2.520    
   39.50       2.513    
   39.60       2.507    
   39.70       2.500    
   39.80       2.492    
   39.90       2.484    
   40.00       2.475    
   40.10       2.466    
   40.20       2.457    
   40.30       2.447    
   40.40       2.437    
   40.50       2.426    
   40.60       2.415    
   40.70       2.404    
   40.80       2.392    
   40.90       2.380    
   41.00       2.367    
   41.10       2.354    
   41.20       2.340    
   41.30       2.327    
   41.40       2.313    
   41.50       2.298    
   41.60       2.283    
   41.70       2.268    
   41.80       2.253    
   41.90       2.237    
   42.00       2.221    
   42.10       2.205    
   42.20       2.188    
   42.30       2.171    
   42.40       2.154    
   42.50       2.137    
   42.60       2.119    
   42.70       2.101    
   42.80       2.083    
   42.90       2.065    
   43.00       2.046    
   43.10       2.027    
   43.20       2.008    
   43.30       1.989    
   43.40       1.970    
   43.50       1.950    
   43.60       1.930    
   43.70       1.911    
   43.80       1.891    
   43.90       1.871    
   44.00       1.850    
   44.10       1.830    
   44.20       1.810    
   44.30       1.789    
   44.40       1.768    
   44.50       1.748    
   44.60       1.727    
   44.70       1.706    
   44.80       1.685    
   44.90       1.664    
   45.00       1.643    
   45.10       1.622    
   45.20       1.602    
   45.30       1.581    
   45.40       1.560    
   45.50       1.539    
   45.60       1.518    
   45.70       1.497    
   45.80       1.476    
   45.90       1.455    
   46.00       1.434    
   46.10       1.413    
   46.20       1.393    
   46.30       1.372    
   46.40       1.352    
   46.50       1.331    
   46.60       1.311    
   46.70       1.291    
   46.80       1.270    
   46.90       1.250    
   47.00       1.231    
   47.10       1.211    
   47.20       1.191    
   47.30       1.172    
   47.40       1.152    
   47.50       1.133    
   47.60       1.114    
   47.70       1.095    
   47.80       1.076    
   47.90       1.058    
   48.00       1.040    
   48.10       1.021    
   48.20       1.003    
   48.30      0.9857    
   48.40      0.9681    
   48.50      0.9507    
   48.60      0.9335    
   48.70      0.9166    
   48.80      0.8998    
   48.90      0.8833    
   49.00      0.8670    
   49.10      0.8509    
   49.20      0.8351    
   49.30      0.8195    
   49.40      0.8041    
   49.50      0.7890    
   49.60      0.7741    
   49.70      0.7594    
   49.80      0.7450    
   49.90      0.7309    
   50.00      0.7170    
   50.10      0.7033    
   50.20      0.6899    
   50.30      0.6768    
   50.40      0.6639    
   50.50      0.6513    
   50.60      0.6390    
   50.70      0.6269    
   50.80      0.6151    
   50.90      0.6035    
   51.00      0.5922    
   51.10      0.5812    
   51.20      0.5704    
   51.30      0.5599    
   51.40      0.5497    
   51.50      0.5398    
   51.60      0.5301    
   51.70      0.5207    
   51.80      0.5115    
   51.90      0.5026    
   52.00      0.4940    
   52.10      0.4856    
   52.20      0.4775    
   52.30      0.4697    
   52.40      0.4622    
   52.50      0.4548    
   52.60      0.4478    
   52.70      0.4410    
   52.80      0.4345    
   52.90      0.4282    
   53.00      0.4222    
   53.10      0.4165    
   53.20      0.4109    
   53.30      0.4057    
   53.40      0.4007    
   53.50      0.3959    
   53.60      0.3914    
   53.70      0.3871    
   53.80      0.3830    
   53.90      0.3792    
   54.00      0.3757    
   54.10      0.3723    
   54.20      0.3692    
   54.30      0.3663    
   54.40      0.3636    
   54.50      0.3612    
   54.60      0.3589    
   54.70      0.3569    
   54.80      0.3551    
   54.90      0.3535    
   55.00      0.3521    
   55.10      0.3509    
   55.20      0.3499    
   55.30      0.3491    
   55.40      0.3485    
   55.50      0.3481    
   55.60      0.3478    
   55.70      0.3478    
   55.80      0.3479    
   55.90      0.3482    
   56.00      0.3487    
   56.10      0.3493    
   56.20      0.3501    
   56.30      0.3510    
   56.40      0.3522    
   56.50      0.3534    
   56.60      0.3548    
   56.70      0.3564    
   56.80      0.3581    
   56.90      0.3599    
   57.00      0.3619    
   57.10      0.3640    
   57.20      0.3662    
   57.30      0.3685    
   57.40      0.3710    
   57.50      0.3735    
   57.60      0.3762    
   57.70      0.3790    
   57.80      0.3819    
   57.90      0.3849    
   58.00      0.3880    
   58.10      0.3912    
   58.20      0.3944    
   58.30      0.3978    
   58.40      0.4012    
   58.50      0.4047    
   58.60      0.4083    
   58.70      0.4119    
   58.80      0.4156    
   58.90      0.4194    
   59.00      0.4232    
   59.10      0.4271    
   59.20      0.4311    
   59.30      0.4350    
   59.40      0.4391    
   59.50      0.4431    
   59.60      0.4472    
   59.70      0.4514    
   59.80      0.4555    
   59.90      0.4597    
   60.00      0.4639    
 END
